*** SPECTRAL RESPONSE DATA ***
ATSR Flight Model FPA 0.67um channel (Pete Read's measuremets  AE-11-08-92).
W
 113
  0.00050000
  0.629000     0.00000
  0.629500     0.00007
  0.630000     0.00009
  0.630500     0.00009
  0.631000     0.00007
  0.631500     0.00009
  0.632000     0.00009
  0.632500     0.00007
  0.633000     0.00009
  0.633500     0.00009
  0.634000     0.00007
  0.634500     0.00002
  0.635000     0.00000
  0.635500     0.00000
  0.636000     0.00003
  0.636500     0.00005
  0.637000     0.00007
  0.637500     0.00014
  0.638000     0.00023
  0.638500     0.00032
  0.639000     0.00050
  0.639500     0.00075
  0.640000     0.00099
  0.640500     0.00126
  0.641000     0.00163
  0.641500     0.00203
  0.642000     0.00265
  0.642500     0.00355
  0.643000     0.00468
  0.643500     0.00675
  0.644000     0.01017
  0.644500     0.01514
  0.645000     0.02640
  0.645500     0.05023
  0.646000     0.09239
  0.646500     0.20568
  0.647000     0.42368
  0.647500     0.66553
  0.648000     0.86821
  0.648500     0.89984
  0.649000     0.87197
  0.649500     0.86989
  0.650000     0.90168
  0.650500     0.94077
  0.651000     0.97187
  0.651500     0.97826
  0.652000     0.96318
  0.652500     0.94523
  0.653000     0.93415
  0.653500     0.93986
  0.654000     0.95682
  0.654500     0.98174
  0.655000     0.99508
  0.655500     1.00000
  0.656000     0.98479
  0.656500     0.96445
  0.657000     0.93596
  0.657500     0.91750
  0.658000     0.91016
  0.658500     0.91800
  0.659000     0.93481
  0.659500     0.95399
  0.660000     0.97075
  0.660500     0.97592
  0.661000     0.96515
  0.661500     0.94329
  0.662000     0.91599
  0.662500     0.89854
  0.663000     0.88789
  0.663500     0.89450
  0.664000     0.90944
  0.664500     0.93587
  0.665000     0.95766
  0.665500     0.96764
  0.666000     0.96373
  0.666500     0.95085
  0.667000     0.93689
  0.667500     0.91439
  0.668000     0.85151
  0.668500     0.73929
  0.669000     0.53540
  0.669500     0.33176
  0.670000     0.20420
  0.670500     0.11223
  0.671000     0.06343
  0.671500     0.04074
  0.672000     0.02505
  0.672500     0.01639
  0.673000     0.01186
  0.673500     0.00843
  0.674000     0.00621
  0.674500     0.00492
  0.675000     0.00372
  0.675500     0.00284
  0.676000     0.00228
  0.676500     0.00173
  0.677000     0.00128
  0.677500     0.00101
  0.678000     0.00070
  0.678500     0.00051
  0.679000     0.00037
  0.679500     0.00024
  0.680000     0.00014
  0.680500     0.00014
  0.681000     0.00010
  0.681500     0.00006
  0.682000     0.00006
  0.682500     0.00006
  0.683000     0.00004
  0.683500     0.00004
  0.684000     0.00002
  0.684500     0.00004
  0.685000     0.00004
